File: data/spectral_absorbance/garlic_powder/Column 1_20221118_002333.csv
***Scan Config Information***,,,,,,,***Reference Scan Information***,,,,,,,,
Scan Config Name:,Column 1,,,,,,Scan Config Name:,Built-in Factory Reference,,,,,,,
Scan Config Type:,Slew,Num Section:,1,,,,Scan Config Type:,Slew,Num Section:,1,,,,,
Section Config Type:,Column,,,,,,Section Config Type:,Column,,,,,,,
Start Wavelength (nm):,900,,,,,,Start Wavelength (nm):,900,,,,,,,
End Wavelength (nm):,1700,,,,,,End Wavelength (nm):,1700,,,,,,,
Pattern Width (nm):,7.03,,,,,,Pattern Width (nm):,7.03,,,,,,,
Exposure (ms):,0.635,,,,,,Exposure (ms):,0.635,,,,,,,
Digital Resolution:,228,,,,,,Digital Resolution:,228,,,,,,,
Num Repeats:,6,,,,,,Num Repeats:,30,,,,,,,
PGA Gain:,64,,,,,,PGA Gain:,64,,,,,,,
System Temp (C):,34.28,,,,,,System Temp (C):,27.24,,,,,,,
Humidity (%):,9.94,,,,,,Humidity (%):,42.33,,,,,,,
Lamp Intensity:,3094,,,,,,Lamp Intensity:,3003,,,,,,,
Data Date-Time:,2022/11/18T00:23:35,,,,,,Data Date-Time:,2021/11/04T14:10:50,,,,,,,
Total Measurement Time in sec:,3.24256,,,,,,,,,,,,,,
,,,,,,,,,,,,,,,
***General Information***,,,,,,,***Calibration Coefficients***,,,,,,,,
Model Name:,NIR-S-G1,,,,,,Shift Vector Coefficients:,-5.53788,0.0467533,-9.86616e-05,,,,,
Serial Number:,A43R020,(95UB122GC0AA43R020),,,,,Pixel to Wavelength Coefficients:,1754.85,-0.928655,-0.000239616,,,,,
GUI Version:,3.7.6,,,,,,Versions (Cal/Ref/Cfg):,1,3,1,,,,,
TIVA Version:,2.4.7,,,,,,***Lamp Usage ***,,,,,,,,
DLPC Version:,2.2.0,,,,,,Total Time(hh:mm:ss):,11min 0sec ,,,,,,,
UUID:,DE:67:0C:88:67:3F:1D:21,,,,,,***Device/Error/Activation Status***,,,,,,,,
Main Board Version:,D,,,,,,Device Status:,0x00000101,Activation Status:,Activated,,,,,
Detector Board Version:,B,,,,,,Error status:,0x00000000,Error Code:,0x00000000000000000000000000000000,,,,,
,,,,,,,,,Error Details:,Not found,,,,,
***Scan Data***,,,,,,,,,,,,,,,
Wavelength (nm),Absorbance (AU),Reference Signal (unitless),Sample Signal (unitless)
900.958,0.216985,65443,39708
904.845,0.226165,82171,48815
910.021,0.237966,99678,57628
913.898,0.241957,110587,63350
917.771,0.245292,123185,70027
921.64,0.247343,139111,78708
925.504,0.250384,159569,89653
929.364,0.249501,183258,103172
933.219,0.246237,207371,117628
937.071,0.243848,229890,131121
942.199,0.237135,255937,148251
946.04,0.232637,272586,159539
949.877,0.229185,287311,169499
953.71,0.229016,300732,177486
957.538,0.227799,313797,185716
961.362,0.228398,326713,193094
965.182,0.228494,339646,200693
968.997,0.230255,353609,208098
974.078,0.232319,373087,218520
977.883,0.234271,388028,226252
981.684,0.2374,402790,233173
985.481,0.239396,417062,240328
989.273,0.242362,431192,246779
993.061,0.244495,444758,253296
996.845,0.245997,456216,258925
1000.62,0.247821,468463,264761
1005.66,0.250259,482450,271140
1009.43,0.251054,491458,275697
1013.19,0.253103,499843,279081
1016.95,0.253814,506896,282556
1020.71,0.253717,512583,285790
1024.46,0.253574,516710,288186
1028.21,0.252335,519030,290307
1031.95,0.250909,518900,291189
1036.94,0.249861,518793,291832
1040.67,0.248163,518378,292741
1044.4,0.247175,517629,292984
1048.12,0.246124,517016,293346
1051.84,0.245038,515671,293315
1055.56,0.244807,513781,292396
1059.27,0.243375,511708,292178
1064.21,0.242053,508349,291145
1067.92,0.241632,506188,290188
1071.61,0.240758,504263,289667
1075.31,0.23946,502196,289343
1079,0.239321,500791,288626
1082.68,0.238397,499607,288557
1086.36,0.237757,499034,288651
1090.04,0.23699,498043,288587
1094.93,0.236328,499075,289626
1098.6,0.235702,500696,290986
1102.26,0.23521,501788,291951
1105.92,0.236289,503305,292107
1109.57,0.236845,505112,292781
1113.22,0.23771,507576,293624
1116.86,0.238047,510261,294948
1120.5,0.238853,513048,296009
1125.35,0.241752,517118,296372
1128.98,0.244667,520581,296361
1132.6,0.250352,524427,294668
1136.22,0.257444,528466,292128
1139.84,0.266752,532886,288325
1143.45,0.279831,536838,281846
1147.06,0.294325,541119,274769
1150.67,0.307343,545478,268803
1155.46,0.318998,551844,264739
1159.06,0.327621,557161,262035
1162.65,0.33884,562302,257709
1166.23,0.356225,568178,250184
1169.81,0.373997,574011,242618
1173.39,0.392081,580020,235159
1176.96,0.413175,586541,226529
1180.53,0.438799,592702,215793
1185.28,0.480624,603044,199400
1188.84,0.507162,610496,189898
1192.39,0.516775,618069,188045
1195.94,0.513166,626553,192217
1199.49,0.506114,634739,197916
1203.03,0.499826,642902,203385
1206.57,0.498315,651802,206919
1210.1,0.497452,661001,210257
1214.8,0.488274,673300,218743
1218.32,0.47298,682816,229786
1221.84,0.449057,693202,246492
1225.35,0.425189,703688,264357
1228.86,0.401053,714299,283679
1232.37,0.380643,724449,301554
1235.87,0.364028,735243,317982
1240.53,0.346207,749881,337898
1244.02,0.336481,760472,350431
1247.51,0.328293,769166,361183
1250.99,0.3224,778059,370350
1254.46,0.31675,786671,379353
1257.94,0.312595,795425,387261
1261.41,0.308871,803958,394787
1264.87,0.306159,812971,401713
1269.48,0.302206,824682,411226
1272.94,0.300083,834168,417994
1276.39,0.297598,843200,424945
1279.83,0.295741,852194,431318
1283.28,0.29396,860946,437538
1286.71,0.292596,868884,442961
1290.15,0.290961,877344,448961
1293.58,0.289601,885846,454734
1298.14,0.28839,896395,461434
1301.56,0.287458,903365,466021
1304.97,0.287252,910138,469737
1308.38,0.287297,917549,473513
1311.79,0.287389,924224,476857
1315.19,0.288268,929653,478688
1318.59,0.289124,934649,480313
1321.98,0.29073,939707,481130
1326.5,0.293345,945677,481280
1329.88,0.296113,950103,480461
1333.26,0.29963,953845,478462
1336.63,0.303107,957047,476240
1340,0.307775,959726,472468
1343.37,0.313865,961442,466722
1346.73,0.321554,962546,459058
1350.08,0.334219,963028,446087
1354.55,0.358387,961157,421121
1357.9,0.380827,960021,399442
1361.24,0.401121,959327,380930
1364.58,0.418335,958722,365896
1367.91,0.434196,958383,352649
1371.24,0.449688,958255,340246
1374.57,0.466618,957143,326858
1378.99,0.489851,953901,308782
1382.31,0.505729,950611,296670
1385.62,0.520172,946429,285704
1388.93,0.535967,942188,274265
1392.23,0.552401,937857,262867
1395.53,0.562474,933593,255672
1398.82,0.56402,929852,253743
1402.11,0.558413,927291,256332
1406.49,0.558583,924838,255554
1409.77,0.56701,922749,250077
1413.04,0.580637,921309,241974
1416.31,0.589984,919833,236442
1419.58,0.596367,918729,232713
1422.84,0.603293,917208,228652
1426.1,0.611134,915833,224224
1429.35,0.621855,915750,218737
1433.68,0.632321,915121,213382
1436.93,0.638265,913363,210077
1440.16,0.641068,912936,208628
1443.4,0.642846,911585,207468
1446.63,0.642294,910497,207484
1449.85,0.642833,908051,206670
1453.08,0.641132,905727,206950
1456.29,0.639983,903172,206913
1460.58,0.637894,898347,206800
1463.78,0.636708,894476,206472
1466.99,0.634579,889693,206377
1470.19,0.631793,885619,206754
1473.38,0.628763,880836,207077
1476.57,0.627268,875537,206541
1479.76,0.626916,869901,205378
1482.94,0.625492,864338,204735
1487.17,0.623291,856064,203805
1490.34,0.621693,849780,203055
1493.51,0.617693,843557,203433
1496.67,0.613795,836401,203526
1499.83,0.610102,829213,203500
1502.98,0.605052,821641,204000
1506.13,0.600199,814056,204388
1510.33,0.595515,803437,203909
1513.47,0.59272,794826,203026
1516.6,0.589375,785238,202128
1519.73,0.585976,777058,201594
1522.86,0.58376,768275,200335
1525.98,0.580737,758619,199199
1529.1,0.578094,748669,197786
1532.21,0.577354,738857,195527
1536.36,0.575754,725937,192817
1539.46,0.575696,715458,190059
1542.56,0.576623,704428,186730
1545.66,0.57561,693680,184310
1548.75,0.574964,682501,181610
1551.83,0.576511,671114,177945
1554.92,0.578773,659970,174081
1557.99,0.579467,647979,170645
1562.09,0.580037,631488,166084
1565.16,0.583219,619340,161700
1568.22,0.584167,606917,158111
1571.28,0.584238,594685,154899
1574.34,0.585414,582323,151269
1577.39,0.587583,569357,147164
1580.43,0.587446,556948,144002
1583.48,0.588598,544505,140412
1587.52,0.588102,527863,136276
1590.56,0.588343,515169,132925
1593.58,0.58801,502141,129663
1596.61,0.58899,490126,126275
1599.63,0.587422,477824,123551
1602.64,0.589118,465418,119874
1605.65,0.588552,452768,116768
1608.66,0.588204,439298,113385
1612.66,0.587812,420391,108603
1615.65,0.588566,406918,104940
1618.65,0.592216,394191,100807
1621.63,0.595337,381894,96963
1624.62,0.597666,369376,93283
1627.59,0.600966,357586,89622
1630.57,0.602617,345747,86326
1633.54,0.600773,334364,83839
1637.49,0.600989,319040,79957
1640.45,0.599772,307846,77368
1643.41,0.596764,296739,75095
1646.36,0.594821,284919,72427
1649.31,0.59055,273144,70120
1652.25,0.587194,260926,67503
1655.19,0.585318,248001,64437
1659.1,0.577066,228681,60557
1662.03,0.568916,212222,57263
1664.95,0.557724,193672,53622
1667.87,0.550734,173346,48773
1670.78,0.536813,152416,44281
1673.7,0.538165,131239,38010
1676.6,0.544937,111046,31664
1679.5,0.568516,93078,25138
1683.37,0.648795,72973,16382
1686.26,0.744129,60866,10971
1689.15,0.902297,50915,6376
1692.03,1.00495,42552,4207
1694.91,1.08994,35956,2923
1697.79,1.24278,30257,1730
1700.66,1.25883,25607,1411