File: data/spectral_absorbance/garlic_powder/Column 1_20221118_002202.csv
***Scan Config Information***,,,,,,,***Reference Scan Information***,,,,,,,,
Scan Config Name:,Column 1,,,,,,Scan Config Name:,Built-in Factory Reference,,,,,,,
Scan Config Type:,Slew,Num Section:,1,,,,Scan Config Type:,Slew,Num Section:,1,,,,,
Section Config Type:,Column,,,,,,Section Config Type:,Column,,,,,,,
Start Wavelength (nm):,900,,,,,,Start Wavelength (nm):,900,,,,,,,
End Wavelength (nm):,1700,,,,,,End Wavelength (nm):,1700,,,,,,,
Pattern Width (nm):,7.03,,,,,,Pattern Width (nm):,7.03,,,,,,,
Exposure (ms):,0.635,,,,,,Exposure (ms):,0.635,,,,,,,
Digital Resolution:,228,,,,,,Digital Resolution:,228,,,,,,,
Num Repeats:,6,,,,,,Num Repeats:,30,,,,,,,
PGA Gain:,64,,,,,,PGA Gain:,64,,,,,,,
System Temp (C):,34.19,,,,,,System Temp (C):,27.24,,,,,,,
Humidity (%):,9.85,,,,,,Humidity (%):,42.33,,,,,,,
Lamp Intensity:,3091,,,,,,Lamp Intensity:,3003,,,,,,,
Data Date-Time:,2022/11/18T00:22:04,,,,,,Data Date-Time:,2021/11/04T14:10:50,,,,,,,
Total Measurement Time in sec:,3.2494,,,,,,,,,,,,,,
,,,,,,,,,,,,,,,
***General Information***,,,,,,,***Calibration Coefficients***,,,,,,,,
Model Name:,NIR-S-G1,,,,,,Shift Vector Coefficients:,-5.53788,0.0467533,-9.86616e-05,,,,,
Serial Number:,A43R020,(95UB122GC0AA43R020),,,,,Pixel to Wavelength Coefficients:,1754.85,-0.928655,-0.000239616,,,,,
GUI Version:,3.7.6,,,,,,Versions (Cal/Ref/Cfg):,1,3,1,,,,,
TIVA Version:,2.4.7,,,,,,***Lamp Usage ***,,,,,,,,
DLPC Version:,2.2.0,,,,,,Total Time(hh:mm:ss):,10min 51sec ,,,,,,,
UUID:,DE:67:0C:88:67:3F:1D:21,,,,,,***Device/Error/Activation Status***,,,,,,,,
Main Board Version:,D,,,,,,Device Status:,0x00000101,Activation Status:,Activated,,,,,
Detector Board Version:,B,,,,,,Error status:,0x00000000,Error Code:,0x00000000000000000000000000000000,,,,,
,,,,,,,,,Error Details:,Not found,,,,,
***Scan Data***,,,,,,,,,,,,,,,
Wavelength (nm),Absorbance (AU),Reference Signal (unitless),Sample Signal (unitless)
900.958,0.211043,65443,40255
904.845,0.216975,82171,49859
910.021,0.231124,99678,58543
913.898,0.233028,110587,64666
917.771,0.236361,123185,71482
921.64,0.239198,139111,80198
925.504,0.241001,159569,91611
929.364,0.240626,183258,105302
933.219,0.239424,207371,119488
937.071,0.233467,229890,134293
942.199,0.227855,255937,151453
946.04,0.224063,272586,162720
949.877,0.221785,287311,172412
953.71,0.219696,300732,181336
957.538,0.218382,313797,189787
961.362,0.218496,326713,197547
965.182,0.219245,339646,205013
968.997,0.220895,353609,212632
974.078,0.223673,373087,222914
977.883,0.224845,388028,231216
981.684,0.227576,402790,238508
985.481,0.230631,417062,245228
989.273,0.231609,431192,252966
993.061,0.234946,444758,258927
996.845,0.235207,456216,265438
1000.62,0.237911,468463,270872
1005.66,0.23997,482450,277640
1009.43,0.242127,491458,281423
1013.19,0.243535,499843,285298
1016.95,0.244122,506896,288933
1020.71,0.244892,512583,291657
1024.46,0.24388,516710,294691
1028.21,0.242147,519030,297198
1031.95,0.241281,518900,297716
1036.94,0.239692,518793,298746
1040.67,0.238848,518378,299088
1044.4,0.237812,517629,299369
1048.12,0.236891,517016,299649
1051.84,0.236217,515671,299334
1055.56,0.235049,513781,299040
1059.27,0.235099,511708,297799
1064.21,0.233479,508349,296950
1067.92,0.232743,506188,296189
1071.61,0.231703,504263,295770
1075.31,0.230711,502196,295231
1079,0.230332,500791,294662
1082.68,0.229175,499607,294750
1086.36,0.228675,499034,294751
1090.04,0.228366,498043,294375
1094.93,0.22767,499075,295458
1098.6,0.228087,500696,296133
1102.26,0.227628,501788,297093
1105.92,0.227375,503305,298165
1109.57,0.227391,505112,299224
1113.22,0.228993,507576,299577
1116.86,0.229239,510261,300991
1120.5,0.229402,513048,302521
1125.35,0.232415,517118,302813
1128.98,0.2349,520581,303102
1132.6,0.239835,524427,301891
1136.22,0.246619,528466,299501
1139.84,0.257598,532886,294467
1143.45,0.269685,536838,288508
1147.06,0.283501,541119,281703
1150.67,0.296396,545478,275665
1155.46,0.308602,551844,271153
1159.06,0.316057,557161,269106
1162.65,0.327478,562302,264540
1166.23,0.344002,568178,257325
1169.81,0.361243,574011,249849
1173.39,0.379599,580020,242016
1176.96,0.399608,586541,233717
1180.53,0.426789,592702,221844
1185.28,0.470119,603044,204282
1188.84,0.495159,610496,195220
1192.39,0.504545,618069,193416
1195.94,0.501945,626553,197248
1199.49,0.49376,634739,203627
1203.03,0.486627,642902,209661
1206.57,0.486432,651802,212659
1210.1,0.48734,661001,215210
1214.8,0.479151,673300,223387
1218.32,0.462512,682816,235392
1221.84,0.439132,693202,252190
1225.35,0.413596,703688,271509
1228.86,0.389721,714299,291178
1232.37,0.368861,724449,309847
1235.87,0.351695,735243,327142
1240.53,0.333924,749881,347591
1244.02,0.323475,760472,361084
1247.51,0.315251,769166,372194
1250.99,0.308747,778059,382178
1254.46,0.303302,786671,391283
1257.94,0.298969,795425,399604
1261.41,0.294966,803958,407631
1264.87,0.291877,812971,415143
1269.48,0.288721,824682,424195
1272.94,0.285841,834168,431929
1276.39,0.284086,843200,438374
1279.83,0.281876,852194,445310
1283.28,0.280048,860946,451781
1286.71,0.2783,868884,457785
1290.15,0.277299,877344,463309
1293.58,0.275963,885846,469240
1298.14,0.275323,896395,475528
1301.56,0.274225,903365,480439
1304.97,0.273994,910138,484299
1308.38,0.273484,917549,488816
1311.79,0.27383,924224,491980
1315.19,0.274607,929653,493985
1318.59,0.275366,934649,495773
1321.98,0.276276,939707,497412
1326.5,0.278766,945677,497711
1329.88,0.281297,950103,497134
1333.26,0.28423,953845,495733
1336.63,0.287481,957047,493688
1340,0.291741,959726,490237
1343.37,0.29692,961442,485292
1346.73,0.304654,962546,477274
1350.08,0.315956,963028,465246
1354.55,0.339759,961157,439577
1357.9,0.362116,960021,417028
1361.24,0.38279,959327,397353
1364.58,0.399903,958722,381759
1367.91,0.414688,958383,368851
1371.24,0.431003,958255,355204
1374.57,0.447449,957143,341608
1378.99,0.470255,953901,323034
1382.31,0.485855,950611,310562
1385.62,0.500864,946429,298692
1388.93,0.515766,942188,287324
1392.23,0.531325,937857,275938
1395.53,0.541357,933593,268411
1398.82,0.540822,929852,267665
1402.11,0.532614,927291,272021
1406.49,0.529855,924838,273030
1409.77,0.537056,922749,267934
1413.04,0.546764,921309,261602
1416.31,0.554698,919833,256455
1419.58,0.557891,918729,254271
1422.84,0.56198,917208,251471
1426.1,0.567163,915833,248115
1429.35,0.575132,915750,243582
1433.68,0.582701,915121,239209
1436.93,0.587479,913363,236137
1440.16,0.588612,912936,235412
1443.4,0.588936,911585,234888
1446.63,0.588229,910497,234990
1449.85,0.585355,908051,235915
1453.08,0.584172,905727,235953
1456.29,0.581853,903172,236547
1460.58,0.579165,898347,236744
1463.78,0.577671,894476,236536
1466.99,0.574866,889693,236796
1470.19,0.572456,885619,237023
1473.38,0.568811,880836,237730
1476.57,0.567409,875537,237064
1479.76,0.565119,869901,236783
1482.94,0.56475,864338,235469
1487.17,0.56266,856064,234340
1490.34,0.560562,849780,233746
1493.51,0.558496,843557,233141
1496.67,0.553901,836401,233622
1499.83,0.550048,829213,233678
1502.98,0.545116,821641,234189
1506.13,0.54063,814056,234436
1510.33,0.534824,803437,234492
1513.47,0.533248,794826,232822
1516.6,0.529216,785238,232159
1519.73,0.527453,777058,230675
1522.86,0.523134,768275,230347
1525.98,0.521706,758619,228201
1529.1,0.519502,748669,226354
1532.21,0.517095,738857,224629
1536.36,0.516524,725937,220991
1539.46,0.51567,715458,218230
1542.56,0.51579,704428,214806
1545.66,0.515863,693680,211493
1548.75,0.516282,682501,207884
1551.83,0.517015,671114,204071
1554.92,0.518175,659970,200147
1557.99,0.519389,647979,195962
1562.09,0.520452,631488,190508
1565.16,0.522853,619340,185813
1568.22,0.523459,606917,181832
1571.28,0.52561,594685,177287
1574.34,0.525309,582323,173722
1577.39,0.527339,569357,169062
1580.43,0.527169,556948,165442
1583.48,0.528158,544505,161378
1587.52,0.528087,527863,156471
1590.56,0.530315,515169,151927
1593.58,0.529963,502141,148205
1596.61,0.531885,490126,144020
1599.63,0.530804,477824,140755
1602.64,0.530939,465418,137058
1605.65,0.530961,452768,133326
1608.66,0.531077,439298,129325
1612.66,0.530284,420391,123985
1615.65,0.535133,406918,118679
1618.65,0.537406,394191,114367
1621.63,0.54029,381894,110066
1624.62,0.542212,369376,105988
1627.59,0.546094,357586,101692
1630.57,0.548331,345747,97820
1633.54,0.548085,334364,94653
1637.49,0.548297,319040,90271
1640.45,0.546097,307846,87546
1643.41,0.544866,296739,84627
1646.36,0.542994,284919,81607
1649.31,0.540737,273144,78642
1652.25,0.538191,260926,75566
1655.19,0.52948,248001,73278
1659.1,0.52467,228681,68322
1662.03,0.517365,212222,64480
1664.95,0.510518,193672,59779
1667.87,0.499872,173346,54833
1670.78,0.491542,152416,49146
1673.7,0.484493,131239,43010
1676.6,0.492981,111046,35688
1679.5,0.515651,93078,28392
1683.37,0.602852,72973,18210
1686.26,0.70599,60866,11978
1689.15,0.828611,50915,7555
1692.03,1.01286,42552,4131
1694.91,1.08463,35956,2959
1697.79,1.1496,30257,2144
1700.66,1.20833,25607,1585