File: data/spectral_absorbance/garlic_powder/Column 1_20221118_002212.csv
***Scan Config Information***,,,,,,,***Reference Scan Information***,,,,,,,,
Scan Config Name:,Column 1,,,,,,Scan Config Name:,Built-in Factory Reference,,,,,,,
Scan Config Type:,Slew,Num Section:,1,,,,Scan Config Type:,Slew,Num Section:,1,,,,,
Section Config Type:,Column,,,,,,Section Config Type:,Column,,,,,,,
Start Wavelength (nm):,900,,,,,,Start Wavelength (nm):,900,,,,,,,
End Wavelength (nm):,1700,,,,,,End Wavelength (nm):,1700,,,,,,,
Pattern Width (nm):,7.03,,,,,,Pattern Width (nm):,7.03,,,,,,,
Exposure (ms):,0.635,,,,,,Exposure (ms):,0.635,,,,,,,
Digital Resolution:,228,,,,,,Digital Resolution:,228,,,,,,,
Num Repeats:,6,,,,,,Num Repeats:,30,,,,,,,
PGA Gain:,64,,,,,,PGA Gain:,64,,,,,,,
System Temp (C):,34.25,,,,,,System Temp (C):,27.24,,,,,,,
Humidity (%):,9.94,,,,,,Humidity (%):,42.33,,,,,,,
Lamp Intensity:,3091,,,,,,Lamp Intensity:,3003,,,,,,,
Data Date-Time:,2022/11/18T00:22:14,,,,,,Data Date-Time:,2021/11/04T14:10:50,,,,,,,
Total Measurement Time in sec:,3.22712,,,,,,,,,,,,,,
,,,,,,,,,,,,,,,
***General Information***,,,,,,,***Calibration Coefficients***,,,,,,,,
Model Name:,NIR-S-G1,,,,,,Shift Vector Coefficients:,-5.53788,0.0467533,-9.86616e-05,,,,,
Serial Number:,A43R020,(95UB122GC0AA43R020),,,,,Pixel to Wavelength Coefficients:,1754.85,-0.928655,-0.000239616,,,,,
GUI Version:,3.7.6,,,,,,Versions (Cal/Ref/Cfg):,1,3,1,,,,,
TIVA Version:,2.4.7,,,,,,***Lamp Usage ***,,,,,,,,
DLPC Version:,2.2.0,,,,,,Total Time(hh:mm:ss):,10min 54sec ,,,,,,,
UUID:,DE:67:0C:88:67:3F:1D:21,,,,,,***Device/Error/Activation Status***,,,,,,,,
Main Board Version:,D,,,,,,Device Status:,0x00000101,Activation Status:,Activated,,,,,
Detector Board Version:,B,,,,,,Error status:,0x00000000,Error Code:,0x00000000000000000000000000000000,,,,,
,,,,,,,,,Error Details:,Not found,,,,,
***Scan Data***,,,,,,,,,,,,,,,
Wavelength (nm),Absorbance (AU),Reference Signal (unitless),Sample Signal (unitless)
900.958,0.199104,65443,41377
904.845,0.206085,82171,51125
910.021,0.216858,99678,60498
913.898,0.222695,110587,66223
917.771,0.226338,123185,73151
921.64,0.22869,139111,82162
925.504,0.229493,159569,94071
929.364,0.229695,183258,107986
933.219,0.227242,207371,122887
937.071,0.222996,229890,137570
942.199,0.218935,255937,154596
946.04,0.214011,272586,166530
949.877,0.210978,287311,176756
953.71,0.209342,300732,185711
957.538,0.207555,313797,194578
961.362,0.207739,326713,202501
965.182,0.208795,339646,210006
968.997,0.210236,353609,217915
974.078,0.21338,373087,228260
977.883,0.215497,388028,236247
981.684,0.21792,402790,243870
985.481,0.220691,417062,250905
989.273,0.221379,431192,258995
993.061,0.224634,444758,265149
996.845,0.226004,456216,271123
1000.62,0.228241,468463,276971
1005.66,0.229873,482450,284171
1009.43,0.230966,491458,288749
1013.19,0.233262,499843,292127
1016.95,0.234134,506896,295655
1020.71,0.234244,512583,298896
1024.46,0.233528,516710,301800
1028.21,0.23241,519030,303936
1031.95,0.231134,518900,304754
1036.94,0.229581,518793,305783
1040.67,0.228641,518378,306200
1044.4,0.22756,517629,306520
1048.12,0.227157,517016,306441
1051.84,0.225706,515671,306667
1055.56,0.224922,513781,306095
1059.27,0.224344,511708,305266
1064.21,0.222242,508349,304733
1067.92,0.221748,506188,303783
1071.61,0.221253,504263,302973
1075.31,0.219683,502196,302824
1079,0.219231,500791,302291
1082.68,0.218323,499607,302208
1086.36,0.21734,499034,302545
1090.04,0.216474,498043,302547
1094.93,0.21656,499075,303114
1098.6,0.216499,500696,304141
1102.26,0.216535,501788,304779
1105.92,0.216763,503305,305540
1109.57,0.21693,505112,306519
1113.22,0.217307,507576,307747
1116.86,0.217605,510261,309163
1120.5,0.218271,513048,310375
1125.35,0.221026,517118,310859
1128.98,0.223523,520581,311147
1132.6,0.228353,524427,309979
1136.22,0.235384,528466,307350
1139.84,0.245318,532886,302912
1143.45,0.258321,536838,296157
1147.06,0.272371,541119,289016
1150.67,0.285058,545478,282956
1155.46,0.296411,551844,278872
1159.06,0.304469,557161,276383
1162.65,0.31519,562302,272132
1166.23,0.331996,568178,264538
1169.81,0.349068,574011,256952
1173.39,0.367507,580020,248849
1176.96,0.387519,586541,240314
1180.53,0.414209,592702,228364
1185.28,0.456971,603044,210561
1188.84,0.483722,610496,200429
1192.39,0.493738,618069,198289
1195.94,0.489671,626553,202902
1199.49,0.482445,634739,209002
1203.03,0.476533,642902,214591
1206.57,0.474581,651802,218542
1210.1,0.475342,661001,221238
1214.8,0.467337,673300,229547
1218.32,0.450549,682816,241966
1221.84,0.427733,693202,258897
1225.35,0.401516,703688,279167
1228.86,0.378126,714299,299057
1232.37,0.357014,724449,318415
1235.87,0.33994,735243,336117
1240.53,0.321489,749881,357687
1244.02,0.311696,760472,371011
1247.51,0.303439,769166,382456
1250.99,0.297168,778059,392504
1254.46,0.292056,786671,401548
1257.94,0.287678,795425,410130
1261.41,0.28325,803958,418778
1264.87,0.280077,812971,426578
1269.48,0.276652,824682,436149
1272.94,0.274468,834168,443390
1276.39,0.272316,843200,450417
1279.83,0.270108,852194,457542
1283.28,0.268336,860946,464130
1286.71,0.26655,868884,470340
1290.15,0.265179,877344,476421
1293.58,0.264252,885846,482066
1298.14,0.263235,896395,488950
1301.56,0.262403,903365,493697
1304.97,0.261458,910138,498482
1308.38,0.261593,917549,502385
1311.79,0.261533,924224,506109
1315.19,0.262408,929653,508058
1318.59,0.262541,934649,510632
1321.98,0.263533,939707,512224
1326.5,0.26641,945677,512074
1329.88,0.268707,950103,511757
1333.26,0.271076,953845,510978
1336.63,0.274641,957047,508501
1340,0.278499,959726,505415
1343.37,0.283537,961442,500479
1346.73,0.290852,962546,492685
1350.08,0.302752,963028,479609
1354.55,0.326722,961157,452973
1357.9,0.348849,960021,429964
1361.24,0.369039,959327,410136
1364.58,0.385979,958722,394197
1367.91,0.401256,958383,380437
1371.24,0.417599,958255,366338
1374.57,0.434963,957143,351572
1378.99,0.457034,953901,333019
1382.31,0.473206,950611,319740
1385.62,0.487708,946429,307879
1388.93,0.5025,942188,296236
1392.23,0.518274,937857,284356
1395.53,0.527623,933593,277035
1398.82,0.526387,929852,276711
1402.11,0.518264,927291,281159
1406.49,0.514614,924838,282782
1409.77,0.521988,922749,277393
1413.04,0.531015,921309,271263
1416.31,0.537862,919833,266592
1419.58,0.540589,918729,264605
1422.84,0.543802,917208,262220
1426.1,0.548547,915833,258982
1429.35,0.556058,915750,254518
1433.68,0.563141,915121,250229
1436.93,0.564926,913363,248724
1440.16,0.567301,912936,247252
1443.4,0.567353,911585,246856
1446.63,0.56603,910497,247314
1449.85,0.564537,908051,247499
1453.08,0.561826,905727,248411
1456.29,0.559353,903172,249125
1460.58,0.557077,898347,249096
1463.78,0.554744,894476,249359
1466.99,0.552112,889693,249533
1470.19,0.548852,885619,250262
1473.38,0.545969,880836,250568
1476.57,0.544503,875537,249903
1479.76,0.542138,869901,249650
1482.94,0.540818,864338,248809
1487.17,0.539022,856064,247448
1490.34,0.537708,849780,246376
1493.51,0.534488,843557,246392
1496.67,0.530335,836401,246649
1499.83,0.525395,829213,247327
1502.98,0.52083,821641,247658
1506.13,0.516267,814056,247963
1510.33,0.511273,803437,247559
1513.47,0.508047,794826,246732
1516.6,0.505084,785238,245424
1519.73,0.502525,777058,244303
1522.86,0.499159,768275,243421
1525.98,0.495979,758619,242128
1529.1,0.493872,748669,240114
1532.21,0.492573,738857,237677
1536.36,0.490832,725937,234459
1539.46,0.490608,715458,231194
1542.56,0.489335,704428,228298
1545.66,0.49021,693680,224362
1548.75,0.490447,682501,220626
1551.83,0.490413,671114,216962
1554.92,0.491857,659970,212651
1557.99,0.491633,647979,208895
1562.09,0.493934,631488,202503
1565.16,0.494414,619340,198388
1568.22,0.496092,606917,193659
1571.28,0.496527,594685,189566
1574.34,0.497321,582323,185286
1577.39,0.498867,569357,180517
1580.43,0.498991,556948,176532
1583.48,0.50036,544505,172045
1587.52,0.501318,527863,166419
1590.56,0.500498,515169,162724
1593.58,0.502909,502141,157731
1596.61,0.503659,490126,153691
1599.63,0.50355,477824,149871
1602.64,0.504074,465418,145804
1605.65,0.503991,452768,141868
1608.66,0.5047,439298,137423
1612.66,0.505696,420391,131207
1615.65,0.507265,406918,126544
1618.65,0.510084,394191,121793
1621.63,0.514322,381894,116848
1624.62,0.519217,369376,111751
1627.59,0.520597,357586,107841
1630.57,0.522498,345747,103815
1633.54,0.525015,334364,99817
1637.49,0.524748,319040,95301
1640.45,0.522323,307846,92472
1643.41,0.52011,296739,89591
1646.36,0.5176,284919,86521
1649.31,0.515741,273144,83301
1652.25,0.513379,260926,80009
1655.19,0.511411,248001,76391
1659.1,0.503196,228681,71785
1662.03,0.497384,212222,67516
1664.95,0.485938,193672,63260
1667.87,0.477633,173346,57714
1670.78,0.471215,152416,51501
1673.7,0.462013,131239,45295
1676.6,0.470905,111046,37549
1679.5,0.494165,93078,29832
1683.37,0.569292,72973,19673
1686.26,0.701231,60866,12110
1689.15,0.840027,50915,7359
1692.03,0.983891,42552,4416
1694.91,1.07591,35956,3019
1697.79,1.15388,30257,2123
1700.66,1.23227,25607,1500