File: data/spectral_absorbance/garlic_powder/Column 1_20221118_002343.csv
***Scan Config Information***,,,,,,,***Reference Scan Information***,,,,,,,,
Scan Config Name:,Column 1,,,,,,Scan Config Name:,Built-in Factory Reference,,,,,,,
Scan Config Type:,Slew,Num Section:,1,,,,Scan Config Type:,Slew,Num Section:,1,,,,,
Section Config Type:,Column,,,,,,Section Config Type:,Column,,,,,,,
Start Wavelength (nm):,900,,,,,,Start Wavelength (nm):,900,,,,,,,
End Wavelength (nm):,1700,,,,,,End Wavelength (nm):,1700,,,,,,,
Pattern Width (nm):,7.03,,,,,,Pattern Width (nm):,7.03,,,,,,,
Exposure (ms):,0.635,,,,,,Exposure (ms):,0.635,,,,,,,
Digital Resolution:,228,,,,,,Digital Resolution:,228,,,,,,,
Num Repeats:,6,,,,,,Num Repeats:,30,,,,,,,
PGA Gain:,64,,,,,,PGA Gain:,64,,,,,,,
System Temp (C):,34.33,,,,,,System Temp (C):,27.24,,,,,,,
Humidity (%):,9.94,,,,,,Humidity (%):,42.33,,,,,,,
Lamp Intensity:,3093,,,,,,Lamp Intensity:,3003,,,,,,,
Data Date-Time:,2022/11/18T00:23:46,,,,,,Data Date-Time:,2021/11/04T14:10:50,,,,,,,
Total Measurement Time in sec:,3.24252,,,,,,,,,,,,,,
,,,,,,,,,,,,,,,
***General Information***,,,,,,,***Calibration Coefficients***,,,,,,,,
Model Name:,NIR-S-G1,,,,,,Shift Vector Coefficients:,-5.53788,0.0467533,-9.86616e-05,,,,,
Serial Number:,A43R020,(95UB122GC0AA43R020),,,,,Pixel to Wavelength Coefficients:,1754.85,-0.928655,-0.000239616,,,,,
GUI Version:,3.7.6,,,,,,Versions (Cal/Ref/Cfg):,1,3,1,,,,,
TIVA Version:,2.4.7,,,,,,***Lamp Usage ***,,,,,,,,
DLPC Version:,2.2.0,,,,,,Total Time(hh:mm:ss):,11min 2sec ,,,,,,,
UUID:,DE:67:0C:88:67:3F:1D:21,,,,,,***Device/Error/Activation Status***,,,,,,,,
Main Board Version:,D,,,,,,Device Status:,0x00000101,Activation Status:,Activated,,,,,
Detector Board Version:,B,,,,,,Error status:,0x00000000,Error Code:,0x00000000000000000000000000000000,,,,,
,,,,,,,,,Error Details:,Not found,,,,,
***Scan Data***,,,,,,,,,,,,,,,
Wavelength (nm),Absorbance (AU),Reference Signal (unitless),Sample Signal (unitless)
900.958,0.221217,65443,39323
904.845,0.225019,82171,48944
910.021,0.238162,99678,57602
913.898,0.243537,110587,63120
917.771,0.244933,123185,70085
921.64,0.248492,139111,78500
925.504,0.25082,159569,89563
929.364,0.249846,183258,103090
933.219,0.2465,207371,117557
937.071,0.244262,229890,130996
942.199,0.237689,255937,148062
946.04,0.233462,272586,159236
949.877,0.231186,287311,168720
953.71,0.228382,300732,177745
957.538,0.227215,313797,185966
961.362,0.227622,326713,193439
965.182,0.227766,339646,201030
968.997,0.230305,353609,208074
974.078,0.232846,373087,218255
977.883,0.235878,388028,225416
981.684,0.238654,402790,232501
985.481,0.240223,417062,239871
989.273,0.242549,431192,246673
993.061,0.244444,444758,253326
996.845,0.246614,456216,258557
1000.62,0.248481,468463,264359
1005.66,0.249959,482450,271327
1009.43,0.250374,491458,276129
1013.19,0.252691,499843,279346
1016.95,0.253756,506896,282594
1020.71,0.254018,512583,285592
1024.46,0.253774,516710,288053
1028.21,0.252455,519030,290227
1031.95,0.250195,518900,291668
1036.94,0.249128,518793,292325
1040.67,0.247672,518378,293072
1044.4,0.247276,517629,292916
1048.12,0.246632,517016,293003
1051.84,0.245147,515671,293242
1055.56,0.244346,513781,292706
1059.27,0.243244,511708,292266
1064.21,0.24249,508349,290852
1067.92,0.241237,506188,290452
1071.61,0.240415,504263,289896
1075.31,0.239588,502196,289258
1079,0.238637,500791,289081
1082.68,0.237556,499607,289116
1086.36,0.237117,499034,289077
1090.04,0.236292,498043,289051
1094.93,0.235841,499075,289951
1098.6,0.235626,500696,291037
1102.26,0.236447,501788,291121
1105.92,0.236396,503305,292035
1109.57,0.236268,505112,293170
1113.22,0.237235,507576,293945
1116.86,0.238101,510261,294911
1120.5,0.23883,513048,296025
1125.35,0.241234,517118,296726
1128.98,0.244286,520581,296621
1132.6,0.249397,524427,295317
1136.22,0.257728,528466,291937
1139.84,0.26696,532886,288187
1143.45,0.27971,536838,281925
1147.06,0.294156,541119,274876
1150.67,0.306796,545478,269142
1155.46,0.3189,551844,264799
1159.06,0.327723,557161,261974
1162.65,0.339788,562302,257147
1166.23,0.355531,568178,250584
1169.81,0.373867,574011,242691
1173.39,0.391775,580020,235325
1176.96,0.412931,586541,226656
1180.53,0.439317,592702,215536
1185.28,0.481472,603044,199011
1188.84,0.506502,610496,190187
1192.39,0.517129,618069,187892
1195.94,0.513446,626553,192093
1199.49,0.504797,634739,198517
1203.03,0.499186,642902,203685
1206.57,0.497778,651802,207175
1210.1,0.496546,661001,210696
1214.8,0.490085,673300,217833
1218.32,0.471865,682816,230377
1221.84,0.450198,693202,245845
1225.35,0.423839,703688,265180
1228.86,0.401008,714299,283708
1232.37,0.380309,724449,301786
1235.87,0.363765,735243,318175
1240.53,0.346425,749881,337728
1244.02,0.336695,760472,350258
1247.51,0.328347,769166,361138
1250.99,0.322381,778059,370366
1254.46,0.316855,786671,379261
1257.94,0.311893,795425,387888
1261.41,0.30867,803958,394969
1264.87,0.305009,812971,402778
1269.48,0.302222,824682,411211
1272.94,0.299405,834168,418648
1276.39,0.297425,843200,425114
1279.83,0.295834,852194,431226
1283.28,0.29397,860946,437528
1286.71,0.292137,868884,443430
1290.15,0.290989,877344,448932
1293.58,0.28984,885846,454484
1298.14,0.288488,896395,461330
1301.56,0.288031,903365,465406
1304.97,0.287615,910138,469345
1308.38,0.287345,917549,473461
1311.79,0.287207,924224,477057
1315.19,0.287866,929653,479132
1318.59,0.289283,934649,480137
1321.98,0.290662,939707,481205
1326.5,0.293562,945677,481040
1329.88,0.29591,950103,480685
1333.26,0.29905,953845,479102
1336.63,0.302786,957047,476593
1340,0.307493,959726,472775
1343.37,0.313543,961442,467068
1346.73,0.321891,962546,458702
1350.08,0.333862,963028,446454
1354.55,0.358977,961157,420550
1357.9,0.380577,960021,399672
1361.24,0.401388,959327,380696
1364.58,0.418405,958722,365837
1367.91,0.433985,958383,352821
1371.24,0.450655,958255,339489
1374.57,0.46651,957143,326939
1378.99,0.489711,953901,308882
1382.31,0.505412,950611,296887
1385.62,0.520491,946429,285494
1388.93,0.53639,942188,273998
1392.23,0.552391,937857,262873
1395.53,0.56358,933593,255022
1398.82,0.564131,929852,253678
1402.11,0.558683,927291,256173
1406.49,0.55903,924838,255291
1409.77,0.568555,922749,249189
1413.04,0.58099,921309,241777
1416.31,0.590089,919833,236385
1419.58,0.596936,918729,232408
1422.84,0.603508,917208,228539
1426.1,0.612249,915833,223649
1429.35,0.621329,915750,219002
1433.68,0.633072,915121,213013
1436.93,0.638434,913363,209995
1440.16,0.64152,912936,208411
1443.4,0.643238,911585,207281
1446.63,0.643978,910497,206681
1449.85,0.642299,908051,206924
1453.08,0.641842,905727,206612
1456.29,0.63933,903172,207224
1460.58,0.63757,898347,206954
1463.78,0.635676,894476,206963
1466.99,0.634341,889693,206490
1470.19,0.631761,885619,206769
1473.38,0.630154,880836,206415
1476.57,0.627075,875537,206633
1479.76,0.62606,869901,205783
1482.94,0.624712,864338,205103
1487.17,0.622965,856064,203958
1490.34,0.620849,849780,203450
1493.51,0.617192,843557,203668
1496.67,0.613594,836401,203620
1499.83,0.608838,829213,204093
1502.98,0.604928,821641,204058
1506.13,0.601397,814056,203825
1510.33,0.59542,803437,203954
1513.47,0.592325,794826,203211
1516.6,0.589848,785238,201908
1519.73,0.585944,777058,201609
1522.86,0.583333,768275,200532
1525.98,0.58097,758619,199092
1529.1,0.579535,748669,197131
1532.21,0.576353,738857,195978
1536.36,0.575618,725937,192877
1539.46,0.575639,715458,190084
1542.56,0.575206,704428,187340
1545.66,0.575029,693680,184557
1548.75,0.57678,682501,180852
1551.83,0.577402,671114,177580
1554.92,0.578825,659970,174060
1557.99,0.579388,647979,170676
1562.09,0.580181,631488,166029
1565.16,0.582411,619340,162001
1568.22,0.584164,606917,158112
1571.28,0.583756,594685,155071
1574.34,0.586058,582323,151045
1577.39,0.586887,569357,147400
1580.43,0.586259,556948,144396
1583.48,0.587273,544505,140841
1587.52,0.58757,527863,136443
1590.56,0.587553,515169,133167
1593.58,0.588321,502141,129570
1596.61,0.589365,490126,126166
1599.63,0.589151,477824,123060
1602.64,0.588611,465418,120014
1605.65,0.587861,452768,116954
1608.66,0.588598,439298,113282
1612.66,0.585471,420391,109190
1615.65,0.586489,406918,105443
1618.65,0.591583,394191,100954
1621.63,0.594692,381894,97107
1624.62,0.596253,369376,93587
1627.59,0.600772,357586,89662
1630.57,0.601747,345747,86499
1633.54,0.599925,334364,84003
1637.49,0.59792,319040,80524
1640.45,0.601003,307846,77149
1643.41,0.596174,296739,75197
1646.36,0.593193,284919,72699
1649.31,0.590581,273144,70115
1652.25,0.585839,260926,67714
1655.19,0.582015,248001,64929
1659.1,0.57612,228681,60689
1662.03,0.567606,212222,57436
1664.95,0.55894,193672,53472
1667.87,0.551046,173346,48738
1670.78,0.540161,152416,43941
1673.7,0.537491,131239,38069
1676.6,0.543869,111046,31742
1679.5,0.569485,93078,25082
1683.37,0.643054,72973,16600
1686.26,0.752966,60866,10750
1689.15,0.88103,50915,6696
1692.03,1.0091,42552,4167
1694.91,1.18157,35956,2367
1697.79,1.2331,30257,1769
1700.66,1.34503,25607,1157